Partial Chi > 12
n 	 type[n] 	 x[n] 	 val[n] 	 nFv 	 chi2 
   12   1       -0.94      0.1957    0.167142     13.7558
   58   2      3.5664       0.453    0.339246     22.4652
   68   2      3.6577       0.354    0.267152     26.0987
   72   2      3.7297       0.313    0.233605     14.2939
   73   2      3.7539       0.305    0.225533     28.0666
   76   2      3.7782       0.298    0.218692     14.9668
   78   2        3.83       0.249     0.20754      17.189
   79   2      3.8514       0.276    0.204043     24.6268
   80   2       3.876        0.28    0.200675     16.5483
   82   2        3.94       0.246    0.194558     21.8701
   83   2      3.9502       0.266    0.193879     24.7392
   87   2      4.0502       0.273    0.190669     37.1932
   90   2      4.1514        0.25    0.193265     17.6618
   91   2        4.18       0.237    0.195167     21.6052
  178   3     -0.5841      0.8427    0.861244      13.221
  180   3       -0.58      0.8479    0.866477     12.2854
  182   3       -0.53      1.3465    0.934347      1805.4
  185   3       -0.45      1.0262     1.06097     12.8496
  189   3       -0.39      1.1323     1.17396     18.4416
  192   3     -0.3894      1.1336     1.17518     16.6151
  194   3       -0.33      1.2716     1.30653     17.7153
  233   4      3.5664       0.453    0.332361      25.267
  243   4      3.6577       0.354    0.265584       27.05
  248   4      3.7539       0.305    0.240906     18.2581
  262   4      4.0502       0.273    0.222749     13.8555
  268   4      4.2539       0.254    0.202841     14.3607
  269   4      4.3577       0.239    0.188996     14.7951
  271   4        4.41        0.36    0.180846     12.8385
  273   4      4.4627        0.25    0.171482     39.4568
  274   4      4.5689       0.237    0.146758     52.1197
  276   4      4.6764       0.207      0.1156     53.4651
  277   4      4.7852       0.191    0.134026      20.775
  305   4        8.84      0.0417   0.0254046     27.6316
  313   4       11.63      0.0194   0.0115482     13.9797
  316   4       12.43      0.0158  0.00959805     15.0251
  317   4       12.43      0.0163  0.00959805     15.5419
  330   5     -0.7788      0.1456   0.0479732     38.1789
  336   5      -0.385      0.0334   0.0589802     35.3892
  344   6        3.69        0.39     0.80755     27.2419
  345   6           4        0.29    0.533618     23.7398
  346   7         -10     -0.0053  -0.0123196      29.157
  347   7          -8      -0.009  -0.0180009      36.007
  348   7          -6     -0.0195  -0.0289967     90.1865
  349   7          -4      -0.041  -0.0551615     50.1372
  350   7          -4     -0.0401  -0.0551615     18.5183
  351   7       -3.25     -0.0595  -0.0754605     18.6076
  352   7        -2.5      -0.092   -0.110076     20.4211
  353   7        -2.5     -0.0949   -0.110076     13.0559
  358   7      -0.784     -0.4506   -0.431683     13.2339
  359   7     -0.7788      -0.342   -0.434404     13.4456
  360   7      -0.652     -0.5391    -0.51033     21.5319
  361   7      -0.605      -0.616    -0.54405     13.3392
  364   7      -0.504     -0.6753   -0.630085     32.7571
  366   7      -0.417      -0.862   -0.723721     24.0442
  373   7      -0.255      -1.114   -0.975155     32.3803
  380   7      -0.109     -1.6332    -1.36745      26.219
  384   8        3.69        0.39    0.691034     14.1596
  386   8        4.41        0.34   0.0725538      28.611
  400   9        -2.5      0.6923    0.659204     32.5605
  412   9       -0.79       0.951    0.886808     16.9319
  515 100   -0.044252      0.9832    0.975084     13.6093
  521 100   -0.048418      0.9821    0.972679     16.7765
  523 100   -0.050468      0.9809    0.971386     12.4174
  529 100   -0.052492      0.9821    0.970001     27.6719
  532 100   -0.054495      0.9764    0.968485     14.2071
  534 100   -0.056484      0.9832    0.966779      28.058
  535 100   -0.056484      0.9791    0.966779     16.8665
  537 100   -0.058421      0.9799    0.964842     23.5945
  538 100   -0.058422      0.9825    0.964841      42.775
  540 100   -0.060327      0.9848    0.962546     55.0289
  541 100   -0.060327      0.9786    0.962546     28.6383
  542 100   -0.060327      0.9796    0.962546     30.2658
  543 100   -0.060326      0.9819    0.962546     41.6182
  544 100   -0.062204      0.9889    0.959697     40.3029
  545 100   -0.062204      0.9774    0.959697     37.2643
  546 100   -0.062204      0.9807    0.959697     70.5795
  547 100   -0.064042      0.9818    0.956006     28.8764
  548 100   -0.064043      0.9773    0.956005     37.0176
  549 100   -0.064044      0.9807    0.956004     97.5816
  550 100   -0.065843      0.9791    0.950866      30.648
  551 100   -0.065844      0.9819    0.950865     107.022
  552 100   -0.065838      0.9833    0.950873     155.546
  553 100   -0.054498       0.986    0.968483     39.1392
  713 103   -0.020889       0.979    0.987243     12.8431
  720 104   -0.054477      0.9822    0.968495     13.0069
  722 104   -0.054479      0.9805    0.968494     19.7726
  735 104   -0.056455      0.9765      0.9668     13.9185
  736 104   -0.056455      0.9805      0.9668     27.7646
  737 104   -0.060323      0.9781     0.96254     33.2104
  738 104   -0.060322      0.9804    0.962541     43.7503
  739 104    -0.06219      0.9813     0.95971     16.5942
  740 104   -0.062188      0.9835    0.959712     77.6244
  741 104   -0.064024      0.9824    0.956026     23.8534
  742 104   -0.064026      0.9811    0.956024     65.4314
  743 104   -0.064025      0.9733    0.956025     40.9348
  744 104   -0.065847      0.9771    0.950817     22.8362
  745 104   -0.065846      0.9858    0.950818     119.503
  746 104   -0.065846      0.9816    0.950818     92.5294
  747 104   -0.067596      0.9847    0.942977     55.5098
  748 104   -0.067595      0.9788    0.942979     125.305
  749 104   -0.067596      0.9802    0.942977     176.726
  750 104   -0.069275      0.9823    0.929379     257.177
  751 104   -0.069275      0.9823    0.929379     333.015
  752 104   -0.070965      0.9773     0.89661     193.543
  753 104   -0.070963      0.9797    0.896628     596.969
  754 104   -0.070962      0.9824    0.896637     874.594
  755 104   -0.072567      0.9846    0.726943     1973.47
  756 104   -0.072568      0.9817    0.726868     5301.17
  757 104   -0.074049      0.9795     1.21321     1517.17
  758 105   -0.074049      0.9878     1.21321     3920.34
  759 105   -0.074049      0.9893     1.21321     5216.82
  760 105   -0.075577      0.9848      1.0516     116.091
  761 105   -0.077078      0.9885     1.01998     26.6301
  762 105   -0.077077       0.988     1.01998     74.7067
  763 105   -0.077078      0.9891     1.01998     113.376
  764 105   -0.078472      0.9926     1.00684     18.6173
  766 105    -0.07977      0.9891    0.999596     12.2397
  800 106   -0.079719      0.9718    0.959985     22.3335
  801 106   -0.079729      0.9711    0.959981     19.7816
  802 106   -0.090777      0.9681    0.953882     27.7315
  803 106   -0.090771      0.9725    0.953885     47.5349
  804 106    -0.10185      0.9746     0.94607     90.4375
  805 106   -0.112804      0.9689    0.934928     105.977
  806 106   -0.112786       0.973    0.934944     132.991
  807 106   -0.123531      0.9765    0.916419     460.418
  808 106   -0.123529      0.9752    0.916422     440.667
  809 106   -0.134023      0.9709    0.876467     818.877
  810 106   -0.134023       0.974    0.876467     822.895
  811 106   -0.133976      0.9721    0.876739     835.053
  812 106   -0.133994      0.9699    0.876683     797.922
  813 106   -0.144119      0.9749    0.716497     6131.53
  814 106   -0.144115      0.9752    0.716563     6142.59
  833 107   -0.063413       0.976    0.967587     14.6226
  835 107   -0.074219      0.9712    0.962671     16.4971
  837 107   -0.074221      0.9728     0.96267     16.4199
  838 107   -0.085226      0.9681    0.957091     17.9291
  839 107   -0.085213      0.9732    0.957097     35.5697
  840 107   -0.085216      0.9702    0.957096     25.4029
  841 107   -0.085221      0.9682    0.957093     16.9217
  842 107   -0.096314      0.9709    0.950264      44.312
  843 107   -0.107282       0.971    0.941134     77.1633
  844 107   -0.107279      0.9704    0.941136      74.083
  845 107   -0.118153      0.9709    0.927105      156.57
  846 107   -0.118154      0.9715    0.927104     160.897
  847 107   -0.128804      0.9738    0.901012     486.511
  848 107   -0.139118      0.9714    0.831011     1809.83
  849 107   -0.128788       0.969    0.901078     450.533
  850 107   -0.128784      0.9741    0.901085     489.543
  851 107   -0.139068      0.9742    0.831586     1867.65
  852 107   -0.139073      0.9724    0.831557     1821.56
  908 108   -0.025378      0.9731    0.984934     16.6529
  957 109    -0.11276      0.9761    0.934966     165.231
  958 109   -0.112766      0.9763    0.934961     189.877
  959 109   -0.112756      0.9773     0.93497     199.092
  960 109   -0.149044      0.9727   -0.163719     73211.3
  961 109   -0.112755      0.9762    0.934971     202.122
  962 109   -0.112767      0.9751     0.93496     205.509
  963 109   -0.149041      0.9726   -0.162865     80580.1
  964 109   -0.149034      0.9651   -0.160879     92609.8
  965 109   -0.149035       0.971   -0.161162       80112
  966 109   -0.149034      0.9702   -0.160879     84111.7
  967 109   -0.149041      0.9711   -0.162865     80367.3
  968 109   -0.149042      0.9757    -0.16315     81061.2
  969 109   -0.149043      0.9668   -0.163434      124749
  970 109   -0.149049      0.9719   -0.165144      126257
  971 109   -0.149051      0.9697   -0.165715      134148
  972 109   -0.149048       0.971   -0.164858      134253
  973 109   -0.149049      0.9712   -0.165144     94322.6
  974 109   -0.149041      0.9705   -0.162865      133665
  975 109   -0.116073      0.9705      0.9304     364.636
  976 109   -0.118103      0.9722    0.927172     418.906
  977 109   -0.118106      0.9732    0.927169     437.781
  978 109   -0.128743       0.972      0.9012      870.24
  979 109   -0.149044      0.9669   -0.163719      124834
  980 109   -0.128742      0.9694    0.901202      807.45
  981 109   -0.134032      0.9654    0.876376     1268.05
  982 109   -0.134039       0.966    0.876354     1188.82
  983 109    -0.13911      0.9684    0.831058     3018.05
  984 109    -0.13911      0.9676    0.831058     2982.99
  985 109   -0.144149      0.9689    0.715512     9497.83
  986 109   -0.144149       0.966    0.715512     9281.67
  987 109   -0.149022      0.9731   -0.157489      175340
  988 109   -0.149021      0.9684   -0.157208      173799
  989 109   -0.153847      0.9651     1.46881     37533.4
  990 109   -0.158494      0.9693     1.18155     6179.92
  991 109   -0.163125       0.967     1.10597     2463.49
  992 109   -0.163129      0.9686     1.10596     2588.35
  993 109   -0.167543      0.9752     1.07178     1189.79
  994 109   -0.171884      0.9692     1.05198     814.886
  995 109   -0.171883      0.9703     1.05198     741.373
  996 109   -0.176131      0.9727     1.03897     649.631
  997 109   -0.176133      0.9754     1.03897     597.764
  998 109   -0.176126      0.9736     1.03897     632.127
  999 109   -0.180212      0.9726        1.03     321.707
 1000 109   -0.180214      0.9731        1.03     316.124
 1001 109   -0.184096      0.9738     1.02338     292.283
 1002 109   -0.184092      0.9706     1.02338      331.23
 1003 109   -0.187956      0.9711     1.01821     263.905
 1004 109   -0.187951      0.9728     1.01821     229.126
 1005 109   -0.191581      0.9733     1.01417     173.803
 1006 109   -0.191578      0.9767     1.01417     146.085
 1007 109   -0.194941      0.9733     1.01104     139.073
 1008 109   -0.194943      0.9733     1.01104     139.075
 1009 109   -0.198371      0.9764     1.00826     93.2022
 1010 109   -0.198376      0.9789     1.00826     79.1519
 1011 109   -0.201723      0.9765     1.00591     74.8158
 1012 109   -0.201725      0.9766     1.00591     74.3092
 1013 109   -0.204811      0.9844     1.00398     31.3044
 1014 109   -0.204807      0.9803     1.00398     45.7828
 1015 109   -0.210517      0.9805     1.00095     34.1269
 1016 109   -0.210517      0.9813     1.00095     31.5086
 1017 109   -0.213074      0.9785    0.999758     39.0927
 1018 109   -0.213074      0.9784    0.999758     39.4613
 1026 110   -0.094317      0.9729    0.955228     15.4219
 1027 110   -0.094323      0.9757    0.955226     19.8109
 1028 110   -0.094316      0.9764    0.955229     21.1828
 1029 110   -0.094335       0.973    0.955221     14.9389
 1030 110    -0.09432      0.9758    0.955227     34.5512
 1031 110    -0.09432      0.9737    0.955227     14.8114
 1032 110   -0.094335      0.9771    0.955221      12.865
 1036 110   -0.094325      0.9804    0.955225     22.5628
 1037 110   -0.094328       0.975    0.955224     14.4641
 1038 110   -0.094336      0.9745     0.95522     13.7467
 1040 110   -0.113689      0.9731    0.945666     37.1677
 1041 110   -0.113679      0.9727    0.945671     36.0785
 1042 110   -0.113679      0.9682    0.945671     25.0655
 1043 110   -0.113688       0.965    0.945666     18.4592
 1044 110   -0.113689      0.9725    0.945666     58.7824
 1045 110   -0.133564      0.9613    0.932663      46.489
 1046 110   -0.133565      0.9682    0.932663     71.5936
 1047 110   -0.133566      0.9639    0.932662     89.6069
 1048 110    -0.15365      0.9638    0.912467     130.127
 1049 110   -0.153654       0.966    0.912463     198.491
 1050 110   -0.173672      0.9617    0.874819     341.708
 1051 110   -0.173678      0.9633    0.874808     514.852
 1052 110   -0.193443      0.9629    0.776791     3604.21
 1053 110   -0.212685      0.9629  -0.0989375     86998.4
 1054 110   -0.212686      0.9641  -0.0990514     87213.8
 1055 110   -0.231281      0.9662      1.3709     11963.9
 1056 110     -0.2313      0.9672      1.3707       11893
 1057 110   -0.249254       0.969     1.15834     3291.96
 1058 110    -0.24924      0.9728     1.15836     1558.72
 1059 110   -0.266281      0.9754     1.10137      1159.2
 1060 110   -0.266272      0.9696     1.10138     1268.45
 1061 111   -0.274462      0.9698     1.08614     1609.51
 1062 111   -0.274464      0.9669     1.08614     1813.67
 1068 112   -0.084858      0.9812    0.959327     16.4065
 1069 112   -0.084881      0.9806    0.959318     15.5323
 1070 112   -0.084869      0.9806    0.959323     15.5252
 1071 112   -0.084869      0.9755    0.959323     17.2057
 1072 112   -0.084878      0.9807    0.959319     30.0549
 1074 112   -0.103941      0.9729     0.95073     18.8973
 1075 112   -0.103924      0.9724    0.950737     29.3292
 1076 112   -0.103943      0.9692    0.950729     14.8083
 1077 112   -0.103942      0.9736    0.950729     22.7026
 1078 112   -0.123557       0.971    0.939771     89.5575
 1079 112    -0.12356      0.9628    0.939769     31.5547
 1080 112   -0.123568      0.9691    0.939764     51.1946
 1081 112   -0.143516       0.968    0.923921     168.076
 1082 112   -0.143546      0.9652    0.923897     177.515
 1083 112   -0.143538      0.9638    0.923904      104.65
 1084 112   -0.143522       0.966    0.923916     116.439
 1085 112   -0.163616      0.9622    0.897129     326.715
 1086 112   -0.163599       0.963    0.897151      334.57
 1087 112   -0.183467       0.963    0.840342     989.147
 1088 112   -0.183466      0.9612    0.840345     1011.49
 1089 112   -0.202996      0.9644    0.632331     9538.92
 1090 112   -0.203027      0.9605    0.631905     9340.39
 1091 112   -0.221986      0.9649     2.13463     74000.5
 1092 112   -0.221992      0.9652     2.13396      111511
 1093 112    -0.24028      0.9643     1.22215     4371.34
 1094 112   -0.240264       0.969     1.22221     4215.21
 1095 112   -0.257797      0.9695     1.12348     1935.37
 1096 112   -0.257815      0.9712     1.12346        1449
 1097 112   -0.274397      0.9736     1.08615     877.303
 1098 112   -0.274406      0.9741     1.08615     968.802
 1190 114   -0.070721      0.9763    0.965161     14.7523
 1191 114    -0.08511      0.9693    0.959259     16.1319
 1192 114   -0.085111      0.9686    0.959258     13.9623
 1195 115   -0.057194      0.9806     0.97065     13.5795
 1204 115   -0.079645      0.9691     0.96153     14.3254
 1205 115   -0.081459       0.969    0.960782     16.8847
 1206 115   -0.083246       0.972    0.960039     22.8887
 1209 115    -0.08511      0.9691    0.959259     15.4956
 1210 115   -0.085111      0.9714    0.959258     23.5867
 1211 115   -0.086952      0.9725    0.958481     31.4472
 1212 115   -0.086952      0.9721    0.958481     29.6784
 1213 115   -0.088843      0.9706    0.957673     26.7357
 1214 115   -0.088843      0.9701    0.957673     24.7074
 1215 115   -0.090632       0.971    0.956901     31.8041
 1216 115   -0.090633      0.9683    0.956901     20.7907
 1217 115   -0.092539      0.9718    0.956068     39.5994
 1218 115    -0.09254      0.9707    0.956068     31.6728
 1219 115   -0.094419       0.971    0.955235     43.1465
 1220 115   -0.094418      0.9721    0.955236     53.7621
 1221 115   -0.096307      0.9712    0.954387     41.8167
 1222 115   -0.096307      0.9693    0.954387     32.8995
 1223 115   -0.098203      0.9688    0.953521     34.5325
 1224 115   -0.098205       0.968     0.95352     31.0146
 1225 115   -0.100105      0.9682    0.952638      35.825
 1226 115   -0.100107      0.9714    0.952637     52.0779
 1227 115   -0.102055      0.9683    0.951716     40.6864
 1228 115   -0.102055      0.9704    0.951716     51.6427
 1229 115   -0.103939      0.9704    0.950807     56.7866
 1230 115    -0.10394      0.9731    0.950807      68.174
 1231 115   -0.105866      0.9702    0.949859     71.8348
 1232 115   -0.105862      0.9731    0.949861     93.7627
 1233 115   -0.107833      0.9711    0.948869     85.8046
 1234 115   -0.107832      0.9716    0.948869      89.704
 1235 115   -0.109733      0.9713     0.94789     95.1439
 1236 115   -0.109733      0.9692     0.94789     78.8397
 1237 115   -0.111677      0.9699    0.946864     92.1273
 1238 115   -0.111678      0.9685    0.946864     81.2732
 1239 115   -0.113663      0.9667    0.945788     69.9684
 1240 115   -0.113662      0.9672    0.945789     73.3509
 1241 115   -0.115581      0.9691    0.944721     70.6706
 1242 115   -0.115582      0.9659     0.94472     53.3383
 1243 115   -0.117543      0.9656    0.943598     57.5615
 1244 115   -0.117544      0.9642    0.943597     50.4718
 1245 116   -0.212676      0.9694  -0.0979137     64578.2
 1246 116   -0.212694      0.9689  -0.0999631     71404.3
 1247 116   -0.221949      0.9638     2.14399      120488
 1248 116   -0.221938      0.9669     2.14523      120109
 1249 116   -0.221949      0.9657     2.14399      135582
 1250 116   -0.221941      0.9614     2.14489      136782
 1251 116   -0.231289      0.9648     1.37204     17257.4
 1252 116   -0.231277      0.9627     1.37217     17446.7
 1253 116   -0.240258      0.9633     1.22246     6989.19
 1254 116    -0.24026      0.9689     1.22246     6278.46
 1255 116    -0.24931       0.964     1.15813     6542.79
 1256 116   -0.257838      0.9698     1.12345     4098.52
 1257 116    -0.26632      0.9707      1.1013     1665.66
 1258 116   -0.266331      0.9676      1.1013     241.681
 1259 116   -0.266324      0.9655      1.1013     1918.96
 1260 116   -0.274445       0.974     1.08615     1228.21
 1261 116   -0.274434       0.977     1.08615     1163.41
 1262 116   -0.282468      0.9746     1.07505     926.577
 1263 116   -0.290101      0.9779     1.06666     723.514
 1264 116   -0.290115      0.9791     1.06666     704.093
 1265 116   -0.297722      0.9774     1.06003     590.577
 1266 116   -0.297708      0.9792     1.06002     565.108
 1267 116   -0.304881      0.9829     1.05476     446.641
 1268 116   -0.304878      0.9869     1.05475     375.859
 1269 116   -0.311934      0.9821     1.05043     455.981
 1270 116   -0.311928      0.9884     1.05043     375.767
 1271 116    -0.31873      0.9926     1.04677     226.383
 1272 116   -0.318734      0.9912     1.04677     238.242
 1273 116   -0.325279      0.9893     1.04374     168.007
 1274 116   -0.325293      0.9906     1.04374     217.904
 1275 116   -0.331453      0.9922     1.04115     184.875
 1276 116   -0.331457      0.9909     1.04115     184.441
 1277 116   -0.337572      0.9927     1.03889     147.777
 1278 116   -0.337586      0.9919      1.0389     152.956
 1279 116   -0.343296      0.9987     1.03695     101.294
 1280 116   -0.343294      1.0019     1.03694      80.745
 1281 116   -0.348571      0.9996     1.03532     98.4615
 1282 116    -0.34857      1.0012     1.03532     89.8378
 1283 116   -0.353927      1.0013     1.03378     77.0407
 1284 116   -0.353925      1.0079     1.03378     48.9077
 1285 116   -0.359153      1.0018     1.03239     68.3719
 1286 116   -0.359149      1.0057     1.03239     52.0487
 1287 116   -0.363583      1.0088     1.03127     36.8971
 1288 116   -0.363581      1.0094     1.03127     34.9522
 1289 116   -0.368375      1.0036     1.03016     48.8649
 1290 116   -0.368376       1.005     1.03016     43.8505
 1292 116   -0.372723      1.0051     1.02919     29.9735
 1293 116   -0.376647      1.0059     1.02836     24.9083
 1294 116   -0.376656      1.0055     1.02836     25.8071
 1319 117   -0.083137      0.9722    0.960536     12.4926
 1320 117   -0.096406      0.9714    0.955227     29.0644
 1321 117   -0.096406      0.9712    0.955227      40.824
 1324 118   -0.096403      0.9789    0.955228     26.4827
 1326 118     -0.0964      0.9723    0.955229     13.7722
 1327 118   -0.096404      0.9753    0.955227     19.0411
 1328 118   -0.096405      0.9765    0.955227     21.3866
 1329 118   -0.096399       0.974    0.955229     16.6511
 1330 118   -0.110004      0.9754    0.949422     49.2967
 1331 118   -0.109997      0.9696    0.949425     29.7329
 1332 118   -0.109999       0.965    0.949424     17.7222
 1333 118   -0.124134      0.9718    0.942711     88.0501
 1334 118   -0.124138      0.9696    0.942709     80.3458
 1335 118   -0.138677      0.9719    0.934668      190.15
 1336 118   -0.138681      0.9686    0.934666     170.341
 1337 118   -0.153507      0.9678    0.924688     351.343
 1338 118   -0.168762      0.9681    0.911555     725.014
 1339 118   -0.184048      0.9636    0.893802      1104.7
 1340 118   -0.199229      0.9679    0.868532     2040.08
 1341 118   -0.214841      0.9632    0.828015     4143.97
 1342 118   -0.230113      0.9639    0.757423     8808.44
 1343 118   -0.245623      0.9648    0.596979     25575.1
 1344 118   -0.260796      0.9682  -0.0657078      202073
 1345 118   -0.275886      0.9683     2.94783      680301
 1346 118   -0.290508      0.9673     1.53857     56657.3
 1347 118   -0.305441      0.9707     1.31905     19416.1
 1348 118   -0.319488       0.973     1.23339     10030.1
 1349 118   -0.333796      0.9776     1.18644     5563.01
 1350 118   -0.347294      0.9746     1.15779     4280.32
 1351 118   -0.360902      0.9809     1.13814     2940.02
 1352 118   -0.373781      0.9824     1.12401     2228.29
 1353 118   -0.373795      0.9811     1.12401     4631.36
 1354 118    -0.38656      0.9878     1.11349     3263.88
 1355 118   -0.398678      0.9859     1.10521     2941.33
 1356 118   -0.410848      0.9926     1.09858      2123.1
 1357 118   -0.422207      0.9987      1.0932     1687.97
 1358 118   -0.333795      0.9775     1.18644     19402.7
 1413 120   -0.062501      0.9828    0.968633     32.1127
 1415 120   -0.064804      0.9765    0.967723     17.4685
 1416 120   -0.064802      0.9769    0.967724      23.325
 1418 120   -0.069497      0.9736    0.965883     16.4979
 1419 120    -0.07184      0.9718    0.964969     14.4035
 1422 120    -0.07929      0.9706    0.962068     18.1971
 1423 120   -0.081796       0.972     0.96109     29.7548
 1424 120   -0.084222      0.9701     0.96014     24.7989
 1425 120   -0.086833      0.9664    0.959113     13.2763
 1426 120   -0.089414      0.9684     0.95809     24.1028
 1427 120   -0.091963      0.9676    0.957072     22.9001
 1428 120   -0.094648      0.9649    0.955989     16.4045
 1429 120   -0.097391      0.9704    0.954871     45.5859
 1430 120   -0.099993      0.9693    0.953796       41.73
 1431 120   -0.102709      0.9671    0.952658     52.1427
 1432 120   -0.105428      0.9686    0.951499     66.3101
 1433 120   -0.108218      0.9677    0.950288     62.6414
 1434 120   -0.110965      0.9667    0.949073     58.7362
 1435 120   -0.110966      0.9701    0.949072     83.5835
 1436 120   -0.111009      0.9657    0.949054     57.2487
 1437 120   -0.110965      0.9682    0.949073      69.158
 1438 120    -0.11101      0.9645    0.949054     49.2948
 1439 120   -0.110966      0.9688    0.949072     73.5681
 1440 120   -0.110966      0.9614    0.949072     31.3983
 1441 120   -0.110966      0.9684    0.949072     70.6149
 1442 120   -0.110919      0.9662    0.949092     60.4684
 1443 120    -0.11101      0.9637    0.949054     12.1606
 1444 120   -0.111009      0.9675    0.949054     70.2993
 1445 120   -0.111009      0.9694    0.949054     85.5274
 1446 120   -0.110965       0.968    0.949073      99.234
 1448 121   -0.110965      0.9648    0.949073     61.8354
 1449 121   -0.113745       0.967    0.947816     187.768
 1450 121   -0.119393      0.9648     0.94517     267.588
 1451 121   -0.125073      0.9686    0.942362     478.062
 1452 121    -0.13081      0.9668     0.93935     523.268
 1453 121   -0.136662      0.9658    0.936062     614.144
 1454 121   -0.142457      0.9681    0.932554     877.448
 1455 121   -0.148354      0.9664    0.928682     48.7885
 1456 121   -0.148354      0.9635    0.928682     717.348
 1457 121   -0.151321      0.9649    0.926602     572.958
 1458 121   -0.154298      0.9656    0.924415      662.57
 1459 121    -0.15728      0.9659    0.922117     851.988
 1460 121   -0.160274      0.9656    0.919691     936.747
 1461 121   -0.163333      0.9668    0.917077     1098.83
 1462 121   -0.166346       0.965    0.914359     1001.76
 1463 121   -0.169304      0.9612    0.911537     963.424
 1464 121   -0.172331      0.9666    0.908478     1319.58
 1465 121   -0.175415      0.9662    0.905164     1289.08
 1466 121   -0.178456      0.9657    0.901683     1600.86
 1467 121   -0.181497       0.961    0.897966     1552.07
 1468 122   -0.334011      0.9801     1.18628     2656.89
 1469 122   -0.334037      0.9802     1.18626     9628.35
 1470 122      -0.361      0.9853     1.13824     4832.83
 1471 122   -0.386973      0.9853     1.11338     3101.15
 1472 122   -0.433773      1.0017     1.08877     1121.36
 1473 122   -0.454929      1.0097     1.08171     661.335
 1474 122   -0.474529      1.0151     1.07642     447.158
 1475 122   -0.492722      1.0236     1.07223     13.5751
 1476 122   -0.492691      1.0209     1.07223     313.282
 1477 122   -0.500929      1.0261     1.07047     143.776
 1478 122   -0.508866      1.0267     1.06894     123.573
 1479 122   -0.516976      1.0356     1.06739     77.9916
 1480 122   -0.524063      1.0326     1.06613     82.1405
 1481 122   -0.531168      1.0389     1.06487     46.7113
 1482 122   -0.538158      1.0351     1.06371     56.7033
 1483 122   -0.544191      1.0419     1.06271     28.4808
 1488 123   -0.183535       0.964    0.905373     265.209
 1489 123   -0.183527      0.9578     0.90538     237.705
 1490 123   -0.183534      0.9564    0.905374      225.23
 1491 123   -0.204463      0.9537    0.881492     579.334
 1492 123   -0.204456      0.9535      0.8815     711.106
 1493 123   -0.204443      0.9584    0.881516     656.798
 1494 123    -0.22576      0.9638    0.844636     316.329
 1495 123   -0.225763      0.9587    0.844631     1784.88
 1496 123   -0.225763      0.9575    0.844631     365.971
 1497 123   -0.225765      0.9616    0.844627     1055.76
 1498 123    -0.22576      0.9583    0.844636     1772.21
 1499 123   -0.247044      0.9626    0.782138     4153.88
 1500 123   -0.268566       0.967     0.65377     14513.8
 1501 123    -0.29005      0.9702    0.257696     69638.2
 1502 123   -0.312024      0.9719     18.4606 4.19554e+07
 1503 123   -0.333157      0.9758     1.78741     84019.7
 1504 123   -0.354269      0.9753     1.42671       24230
 1505 123   -0.374909      0.9738     1.30516     12199.8
 1506 123   -0.395409      0.9861     1.24429     9144.15
 1507 123   -0.415422      0.9879     1.20816     1493.18
 1508 123   -0.415428      0.9874     1.20815      6215.9
 1509 123   -0.435104      0.9977     1.18444     4146.46
 1510 123    -0.45401      0.9972     1.16788     3237.02
 1511 123   -0.472904      1.0036     1.15543     2251.27
 1512 123   -0.490801      1.0115     1.14598     358.779
 1513 123   -0.490818       1.006     1.14599     1357.05
 1514 123   -0.508461      1.0107     1.13847     1941.25
 1515 123   -0.525358       1.013     1.13235     1582.68
 1516 123   -0.541891      1.0201     1.12727     1121.71
 1517 123   -0.573169      1.0297     1.11924     527.062
 1518 123   -0.557785      1.0214     1.12294     714.043
 1519 123   -0.587844      1.0283     1.11599     665.208
 1520 123   -0.602181       1.039      1.1131     423.715
 1521 123   -0.615728      1.0347     1.11051     398.052
 1522 123   -0.628831      1.0465     1.10818     165.114
 1523 123   -0.628839      1.0473     1.10818     160.865
 1524 123    -0.64144      1.0428     1.10602     127.428
 1525 123   -0.641439      1.0435     1.10601      162.77
 1526 123   -0.653555      1.0543     1.10404     91.4973
 1527 123   -0.653554      1.0567     1.10404     82.8802
 1528 123   -0.665077      1.0551     1.10218      50.893
 1529 123   -0.665077       1.051     1.10218     118.597
 1530 123   -0.665075      1.0547     1.10218     102.069
 1531 123   -0.676109      1.0571     1.10048     78.3779
 1532 123   -0.676105       1.054     1.10048     89.9779
 1533 123   -0.472914      1.0038     1.15543     2733.92
 1543 124   -0.090337      0.9691    0.958014     12.0025
 1544 124   -0.090333      0.9703    0.958015     14.7379
 1546 124   -0.097015      0.9718    0.955419     29.8152
 1547 124   -0.100517      0.9695    0.954037     26.5687
 1548 124   -0.103931      0.9702     0.95267     34.1431
 1549 124   -0.107449      0.9625     0.95124     13.1932
 1550 124   -0.111012      0.9619    0.949765     15.3242
 1551 124   -0.114607      0.9675    0.948245     47.2909
 1553 124    -0.11824      0.9673    0.946673      54.269
 1554 124   -0.121933      0.9701    0.945033     74.7141
 1555 124    -0.12554      0.9655    0.943388     58.1361
 1556 124   -0.129354      0.9664    0.941595     68.3652
 1557 124   -0.133128      0.9702    0.939761     25.7368
 1558 124   -0.133125      0.9637    0.939763     49.5677
 1559 124   -0.136942      0.9672     0.93784     118.247
 1560 124   -0.140779      0.9654    0.935835     119.902
 1561 124   -0.144645      0.9674    0.933733     144.574
 1562 124   -0.152375      0.9644    0.929252     106.867
 1563 124   -0.148537      0.9653    0.931526     104.745
 1564 124     -0.1564      0.9669    0.926753     157.399
 1565 124   -0.156397      0.9643    0.926755     129.443
 1566 124   -0.156397      0.9634    0.926755     123.311
 1567 124   -0.156397      0.9656    0.926755     94.3086
 1568 124   -0.156397       0.969    0.926755      111.54
 1569 124   -0.156397      0.9669    0.926755     83.2451
 1570 124   -0.156397      0.9683    0.926755     107.874
 1571 124   -0.156394      0.9666    0.926757     99.2179
 1572 124   -0.156398      0.9659    0.926754     95.7738
 1573 124     -0.1564      0.9669    0.926753     76.1705
 1574 124   -0.156396      0.9697    0.926756     142.301
 1575 124   -0.156396      0.9659    0.926756     118.232
 1576 124   -0.156396      0.9676    0.926756      121.86
 1577 124   -0.156396      0.9654    0.926756     115.231
 1578 124   -0.156402      0.9625    0.926752      98.605
 1579 124   -0.156402      0.9628    0.926752     100.267
 1580 124   -0.156396      0.9697    0.926756     134.713
 1581 125   -0.129354       0.963    0.941595     44.7434
 1582 125   -0.156396       0.966    0.926756     101.258
 1583 125   -0.156397      0.9666    0.926755     129.602
 1584 125   -0.160368      0.9673    0.924165     193.618
 1585 125   -0.164283      0.9665    0.921477     225.226
 1586 125    -0.16829      0.9616    0.918576     205.669
 1587 125   -0.172324      0.9575    0.915488     282.401
 1588 125   -0.176391      0.9656    0.912187     456.465
 1589 125   -0.180473      0.9675    0.908666     553.836
 1590 125    -0.18457      0.9701    0.904899     442.372
 1591 125   -0.188765      0.9678    0.900775     438.706
 1592 125   -0.192818      0.9688    0.896507     510.372
 1593 125   -0.196987      0.9631    0.891796     496.505
 1594 125   -0.201067      0.9589    0.886829     507.253
 1595 125   -0.205298      0.9617    0.881257     887.669
 1596 125   -0.205332      0.9459    0.881216     54.0286
 1597 125   -0.205303      0.9596    0.881251     331.995
 1598 125   -0.205333      0.9584    0.881215     136.765
 1599 125   -0.205333      0.9623    0.881215     297.635
 1600 125    -0.20952      0.9588    0.875234     604.089
 1601 125   -0.209521      0.9614    0.875233     220.713
 1602 125   -0.209521      0.9648    0.875233     334.123
 1603 125   -0.209521      0.9591    0.875233     161.472
 1604 125    -0.21794      0.9639    0.861542     906.335
 1605 125   -0.217937      0.9443    0.861546     71.3057
 1606 125    -0.21794      0.9638    0.861542     418.271
 1607 125    -0.21794      0.9579    0.861542     402.992
 1608 125   -0.226358      0.9548     0.84506     1253.15
 1609 125   -0.226388      0.9581    0.845006     1249.04
 1610 125   -0.226391      0.9528    0.845001     67.7154
 1611 125   -0.226398      0.9484    0.844988     113.657
 1612 125    -0.22639      0.9547    0.845003     752.093
 1613 125   -0.234889        0.96    0.824616     1789.91
 1614 125   -0.234888      0.9648    0.824619     726.731
 1615 125   -0.234889      0.9562    0.824616        1030
 1616 125   -0.243494      0.9556    0.798704     2561.53
 1617 126   -0.201109      0.9598    0.886782     788.697
 1618 126   -0.201113      0.9611    0.886778      958.99
 1619 126   -0.205242      0.9592    0.881323     897.155
 1620 126   -0.205237       0.959    0.881329     285.101
 1621 126   -0.209429      0.9636    0.875351     1152.06
 1622 126   -0.213721      0.9651    0.868684     1487.36
 1623 126   -0.213727      0.9625    0.868676     1408.47
 1624 126   -0.217844      0.9601    0.861686     1432.73
 1625 126   -0.217836      0.9614    0.861698     1470.47
 1626 126   -0.222191      0.9621     0.85363     1740.48
 1627 126   -0.222193      0.9618    0.853627     1012.23
 1628 126   -0.222191       0.956     0.85363     765.488
 1629 126   -0.226427      0.9665    0.844936     1537.75
 1630 126   -0.226422      0.9632    0.844945     1918.28
 1631 126   -0.230669      0.9642    0.835297     1622.66
 1632 126    -0.23067      0.9665    0.835295     975.894
 1633 126   -0.230666      0.9649    0.835303      2303.9
 1634 126   -0.234784      0.9613    0.824847     2554.11
 1635 126   -0.234787      0.9573     0.82484      2406.8
 1636 126   -0.239006      0.9595    0.813011     2943.61
 1637 126   -0.239009      0.9592    0.813004     1744.76
 1638 126    -0.23901      0.9629    0.813002     1943.73
 1639 126   -0.243344      0.9577    0.799226     4018.25
 1640 126   -0.243348      0.9575    0.799215     4008.66
 1641 126   -0.247693      0.9627    0.783512     5137.32
 1642 126   -0.251967      0.9598    0.765828     5565.87
 1643 126   -0.251964      0.9633    0.765838     5767.92
 1644 127   -0.472874      1.0047     1.15543     3944.47
 1645 127   -0.472876      1.0045     1.15543     4706.71
 1646 127    -0.49076      1.0072     1.14602     3981.58
 1647 127   -0.508292      1.0096     1.13852     3142.05
 1648 127   -0.525321      1.0101     1.13237     2826.26
 1649 127   -0.542028      1.0258     1.12724      1786.4
 1650 127   -0.557861      1.0219     1.12295     2552.86
 1651 127   -0.573211       1.025     1.11924     2013.92
 1652 127   -0.587905      1.0228       1.116     43.6911
 1653 127   -0.587898      1.0328       1.116     1430.18
 1655 127   -0.602159      1.0364     1.11312     750.746
 1656 127   -0.615663      1.0351     1.11054     676.725
 1657 127   -0.628986      1.0498     1.10817     354.507
 1658 127   -0.641508      1.0387     1.10602     471.656
 1659 127   -0.653562      1.0475     1.10404     293.563
 1660 127   -0.665249      1.0489     1.10217     361.921
 1661 127   -0.665238      1.0553     1.10217     24.8579
 1662 127   -0.665258      1.0529     1.10217     119.874
 1663 127   -0.665248      1.0523     1.10217     50.7507
 1664 127   -0.665248      1.0569     1.10217     85.3462
 1665 127   -0.676303      1.0573     1.10046     143.712
 1666 127   -0.676298       1.056     1.10046     51.4137
 1667 127   -0.676297      1.0604     1.10046     59.3372
 1668 127   -0.676302      1.0626     1.10046     27.6451
 1669 127   -0.696913      1.0638     1.09732     73.8755
 1671 127    -0.69691      1.0727     1.09732     18.0192
 1672 127   -0.696912      1.0731     1.09732     18.7067
 1673 127   -0.715149      1.0669     1.09461     56.0995
 1674 127   -0.715149      1.0745     1.09461     26.5961
 1676 127   -0.715146      1.0586     1.09461     56.2889
 1681 128   -0.653623      1.0466     1.10405     528.077
 1682 128   -0.653605      1.0494     1.10405     564.522
 1683 128   -0.665194      1.0516     1.10216     378.155
 1684 128   -0.665181      1.0528     1.10216     115.134
 1685 128   -0.676367      1.0584     1.10047     242.732
 1686 128   -0.676359      1.0608     1.10046     215.813
 1687 128   -0.686691      1.0626     1.09884     194.303
 1688 128   -0.686696      1.0579     1.09884     247.975
 1689 128   -0.696973      1.0607     1.09733     184.044
 1690 128   -0.696971      1.0623     1.09733     168.314
 1691 128   -0.706412      1.0718     1.09589     79.5897
 1692 128   -0.706402      1.0676     1.09589     61.7367
 1693 128   -0.706395      1.0681     1.09589     50.7574
 1694 128   -0.715171      1.0716     1.09462     48.6432
 1695 128   -0.715172      1.0699     1.09462     77.9177
 1697 128   -0.723864      1.0725      1.0933     21.3551
 1698 128   -0.723854      1.0829     1.09329     12.8458
 1700 128   -0.732449      1.0784     1.09206     20.7203
 1709 129   -0.306851      0.9584    0.409383     14884.9
 1710 129   -0.306859      0.9716    0.409261       15616
 1711 129   -0.306902      0.9717    0.408608     16377.7
 1712 129   -0.306904       0.974    0.408578     15108.8
 1713 129   -0.306888       0.963    0.408821     15166.1
 1714 129   -0.335383      0.9659    -3.09895      780860
 1715 129   -0.335385      0.9616    -3.10011      814691
 1716 129   -0.335386      0.9667    -3.10069      816972
 1717 129    -0.33537       0.969     -3.0914      779152
 1718 129   -0.335381      0.9645    -3.09779      814922
 1719 129   -0.363893      0.9671     2.02524     52914.4
 1720 129   -0.363887      0.9747     2.02541     52173.9
 1721 129   -0.363849      0.9772     2.02649     49841.9
 1722 129   -0.363852      0.9762      2.0264     49928.9
 1723 129   -0.363838      0.9728      2.0268     52500.9
 1724 129   -0.391673      0.9765     1.50467     12628.5
 1725 129   -0.391679      0.9743     1.50464       13292
 1726 129   -0.391627      0.9734     1.50491     13350.8
 1727 129    -0.39163      0.9793     1.50489     12505.6
 1728 129    -0.39163      0.9805     1.50489     12995.7
 1729 129    -0.42008      0.9847     1.35287     6405.98
 1730 129   -0.420083      0.9837     1.35287     2422.82
 1731 129   -0.420103      0.9763     1.35283     6418.02
 1732 129   -0.420099      0.9856     1.35284     6105.14
 1733 129   -0.420102       0.991     1.35283     5926.73
 1734 129    -0.44709      0.9891     1.28387     3771.35
 1735 129   -0.447116      0.9929     1.28385     3674.18
 1736 129   -0.447114      0.9864     1.28385     3840.22
 1737 129    -0.44712      0.9869     1.28385     3827.19
 1738 129   -0.447111      0.9916     1.28386     3557.42
 1739 129   -0.474824      0.9925     1.24357     10943.5
 1740 129    -0.50114      0.9997     1.21815     9859.23
 1741 129   -0.527449       1.001     1.20051     7524.51
 1742 130   -0.552353      1.0101     1.18776     5966.46
 1743 130   -0.577487      1.0217     1.17798     4240.42
 1744 130   -0.601103      1.0149     1.17031     4192.85
 1745 130   -0.624893      1.0248     1.16411     2870.74
 1746 130   -0.646801      1.0291     1.15891     1375.58
 1747 130   -0.668975      1.0329     1.15455     1887.47
 1748 130   -0.689459      1.0248     1.15065     363.622
 1749 130   -0.710104      1.0447     1.14728     1826.82
 1750 130   -0.728977      1.0517     1.14419      1368.7
 1751 130   -0.748179      1.0574     1.14141     689.211
 1752 130   -0.765639      1.0537     1.13878     923.373
 1753 130    -0.72951      1.0489     1.14421     1246.11
 1772 131   -0.153845      0.9607    0.929985     19.2532
 1773 131   -0.158758      0.9598    0.927148      21.758
 1774 131   -0.158759      0.9577    0.927148     19.6062
 1776 131   -0.168723      0.9596    0.920904     29.7046
 1777 131   -0.173879      0.9663    0.917378     46.1687
 1778 131   -0.178864       0.964     0.91375     50.0914
 1779 131   -0.178861      0.9642    0.913752      49.094
 1780 131    -0.18398      0.9702    0.909777     70.4262
 1781 131   -0.189255      0.9621     0.90539      62.037
 1782 131   -0.194348      0.9621     0.90084     70.4219
 1783 131   -0.199733      0.9581    0.895666     73.1459
 1784 131    -0.19974      0.9592     0.89566     420.117
 1785 131   -0.205114      0.9628    0.890055     516.781
 1786 131   -0.210304      0.9575    0.884181     559.382
 1787 131   -0.215632      0.9593     0.87762     651.529
 1788 131   -0.220998      0.9667    0.870395     905.719
 1789 131   -0.226369      0.9605    0.862453     938.792
 1790 131   -0.231783      0.9628    0.853626     1163.96
 1791 131   -0.237216      0.9566    0.843807     688.065
 1792 131   -0.242666      0.9584    0.832829     1447.94
 1793 131   -0.248141      0.9492    0.820469     195.791
 1794 131    -0.25364      0.9646     0.80646     3189.81
 1795 131   -0.259154      0.9662    0.790442     3940.18
 1796 131   -0.264689      0.9671    0.772055     3105.51
 1797 131   -0.270221      0.9643    0.750848     4449.37
 1798 131   -0.275795      0.9661    0.725704     4717.58
 1799 131   -0.281439      0.9628    0.695735     5822.33
 1800 131   -0.303812      0.9669    0.488855       15826
 1801 131   -0.309426      0.9737    0.392925     23358.7
 1802 131   -0.309426      0.9673    0.392925     22846.7
 1803 131   -0.315044      0.9689    0.257846     33241.1
 1804 131   -0.315047      0.9708    0.257778     33425.4
 1805 131   -0.320659       0.977   0.0540021     53245.3
 1806 131   -0.320658      0.9726   0.0540371     52734.9
 1807 131    -0.32628      0.9656   -0.289183      128529
 1808 132    -0.32628      0.9626   -0.289183      114460
 1809 132   -0.332017      0.9723    -1.00878      222488
 1810 132   -0.337536      0.9675    -3.17951 1.25622e+06
 1811 132    -0.34316      0.9715     64.5687 2.95442e+08
 1812 132   -0.348887       0.971     4.74781      987830
 1813 132   -0.354414      0.9761     2.99708      298347
 1814 132   -0.360011       0.969      2.3695      143272
 1815 132   -0.365744      0.9778     2.04506     78881.8
 1816 132   -0.371228      0.9718     1.85721     37048.4
 1817 132   -0.371229      0.9728     1.85719     36963.2
 1818 132   -0.376825      0.9716     1.72817     28266.9
 1819 132   -0.376822      0.9736     1.72821     29413.2
 1820 132   -0.382527      0.9715     1.63427     20759.2
 1821 132   -0.382528      0.9783     1.63426     18675.6
 1822 132   -0.387993      0.9694     1.56661     6879.99
 1823 132   -0.387994      0.9747      1.5666       18948
 1824 132   -0.393568      0.9754     1.51274     12025.6
 1825 132    -0.39357      0.9798     1.51273       11829
 1826 132   -0.399138      0.9862     1.46968     9350.03
 1827 132   -0.399136      0.9779     1.46969     2467.64
 1828 132   -0.404683      0.9808     1.43456     8235.89
 1829 132   -0.404678      0.9814     1.43458     7895.75
 1830 132   -0.410227      0.9885     1.40532     3988.52
 1831 132   -0.415749      0.9828     1.38067     5854.25
 1832 132   -0.415753      0.9817     1.38066     4140.69
 1833 132   -0.421156      0.9862     1.35997     4973.43
 1834 132   -0.421156       0.977     1.35997     5221.28
 1835 132   -0.426868      0.9818     1.34104     4425.63
 1836 132   -0.426862      0.9674     1.34105     893.517
 1837 132   -0.432252      0.9758     1.32548     203.706
 1838 132    -0.43225      0.9842     1.32548     3850.33
 1839 132   -0.432248      0.9874     1.32548     3778.53
 1840 132   -0.432249      0.9847     1.32548     3839.09
 1841 132    -0.43782      0.9798     1.31126     1760.42
 1842 132    -0.43782      0.9791     1.31126     1563.67
Chi2: 3.50259e+08
